#Wavelength	Transmission
1.3968460000	0.0188350700
1.3972330000	0.0184669600
1.3976210000	0.0180988500
1.3980080000	0.0177307400
1.3983950000	0.0173626200
1.3987830000	0.0169945100
1.3991700000	0.0166264000
1.3995580000	0.0162582900
1.3999450000	0.0158901700
1.4003320000	0.0155220600
1.4007200000	0.0151539500
1.4011070000	0.0147858400
1.4014940000	0.0144177300
1.4018820000	0.0140496100
1.4022690000	0.0136815000
1.4026570000	0.0133133900
1.4030440000	0.0129452800
1.4034310000	0.0125771700
1.4038190000	0.0122090500
1.4042060000	0.0118409400
1.4045930000	0.0114728300
1.4049810000	0.0111047200
1.4053680000	0.0107366000
1.4057560000	0.0103684900
1.4061430000	0.0100003800
1.4065300000	0.0096322680
1.4069180000	0.0092641560
1.4073050000	0.0088960440
1.4076920000	0.0085279320
1.4080800000	0.0081598200
1.4084670000	0.0077917070
1.4088550000	0.0074235950
1.4092420000	0.0070554830
1.4096290000	0.0066873710
1.4100170000	0.0063192590
1.4104040000	0.0059511470
1.4107910000	0.0055830340
1.4111790000	0.0052149220
1.4115660000	0.0048468100
1.4119540000	0.0044786980
1.4123410000	0.0041105860
1.4127280000	0.0037424740
1.4131160000	0.0033743610
1.4135030000	0.0030062490
1.4138900000	0.0026381370
1.4142780000	0.0022700250
1.4146650000	0.0019019130
1.4150530000	0.0015338010
1.4154400000	0.0011656890
1.4154420000	0.1120288000
1.4158290000	0.1116607000
1.4162160000	0.1112926000
1.4166040000	0.1109245000
1.4169890000	-0.0003067601
1.4173770000	-0.0006748723
1.4177640000	-0.0010429840
1.4181520000	-0.0014110970
1.4185390000	-0.0017792090
1.4189260000	-0.0021473210
1.4193140000	-0.0025154330
1.4197010000	-0.0028835450
1.4200880000	-0.0032516570
1.4204760000	-0.0036197700
1.4208630000	-0.0039878820
1.4212510000	-0.0043559940
1.4216380000	-0.0047241060
1.4220250000	-0.0050922180
1.4224130000	-0.0054603300
1.4228000000	-0.0058284430
1.4231880000	-0.0061965550
1.4235750000	-0.0065646670
1.4239620000	-0.0069327790
1.4243500000	-0.0073008910
1.4247370000	-0.0076690030
1.4251240000	-0.0080371160
1.4255120000	-0.0084052280
1.4258990000	-0.0087733400
1.4262870000	-0.0091414520
1.4266740000	-0.0095095640
1.4270610000	-0.0098776760
1.4274490000	-0.0102457900
1.4278360000	-0.0106139000
1.4282230000	-0.0109820100
1.4286110000	-0.0113501200
1.4289980000	-0.0117182400
1.4293860000	-0.0120863500
1.4297730000	-0.0124544600
1.4301600000	-0.0128225700
1.4305480000	-0.0131906900
1.4309350000	-0.0135588000
1.4313220000	-0.0139269100
1.4317100000	-0.0142950200
1.4320970000	-0.0146631300
1.4324850000	-0.0150312500
1.4328720000	-0.0153993600
1.4332590000	-0.0157674700
1.4336470000	-0.0161355800
1.4340340000	-0.0165037000
1.4344210000	-0.0168718100
1.4348090000	-0.0172399200
1.4351960000	-0.0176080300
1.4355840000	-0.0179761400
1.4359710000	-0.0183442600
1.4363580000	-0.0187123700
1.4367460000	-0.0190804800
1.4371330000	-0.0194485900
1.4375200000	-0.0198167000
1.4375220000	0.0910464100
1.4379100000	0.0906783000
1.4382970000	0.0903101800
1.4386840000	0.0899420700
1.4390720000	0.0895739600
1.4394590000	0.0892058500
1.4398460000	0.0888377300
1.4398480000	0.1997008000
1.4402360000	0.1993327000
1.4406230000	0.1989646000
1.4410100000	0.1985965000
1.4413980000	0.1982284000
1.4417850000	0.1978603000
1.4421720000	0.1974922000
1.4425600000	0.1971241000
1.4429470000	0.1967560000
1.4433350000	0.1963878000
1.4437220000	0.1960197000
1.4437240000	0.3068828000
1.4441110000	0.3065147000
1.4444980000	0.3061466000
1.4445000000	0.4170097000
1.4448870000	0.4166416000
1.4452750000	0.4162735000
1.4452770000	0.5271366000
1.4456640000	0.5267685000
1.4460510000	0.5264004000
1.4464390000	0.5260323000
1.4468260000	0.5256642000
1.4472130000	0.5252961000
1.4476010000	0.5249279000
1.4476030000	0.6357911000
1.4479900000	0.6354229000
1.4483770000	0.6350548000
1.4483790000	0.7459179000
1.4487660000	0.7455498000
1.4491540000	0.7451817000
1.4495410000	0.7448136000
1.4495430000	0.8556767000
1.4499300000	0.8553086000
1.4503180000	0.8549405000
1.4503190000	0.9658036000
1.4507070000	0.9654355000
1.4510940000	0.9650674000
1.4510960000	1.0759300000
1.4514830000	1.0755620000
1.4514850000	1.1864250000
1.4518720000	1.1860570000
1.4522600000	1.1856890000
1.4522610000	1.2965520000
1.4526490000	1.2961840000
1.4530360000	1.2958160000
1.4530380000	1.4066790000
1.4534250000	1.4063110000
1.4534270000	1.5171740000
1.4538140000	1.5168060000
1.4538160000	1.6276690000
1.4542030000	1.6273010000
1.4542050000	1.7381640000
1.4545930000	1.7377960000
1.4545940000	1.8486590000
1.4549820000	1.8482910000
1.4549830000	1.9591540000
1.4553710000	1.9587860000
1.4557580000	1.9584180000
1.4557600000	2.0692810000
1.4557620000	2.1801440000
1.4561490000	2.1797760000
1.4561510000	2.2906390000
1.4565380000	2.2902710000
1.4565400000	2.4011340000
1.4565410000	2.5119970000
1.4569290000	2.5116290000
1.4569310000	2.6224920000
1.4573180000	2.6221240000
1.4573200000	2.7329870000
1.4577070000	2.7326190000
1.4577090000	2.8434820000
1.4577100000	2.9543460000
1.4580980000	2.9539770000
1.4581000000	3.0648410000
1.4584890000	3.1753360000
1.4584900000	3.2861990000
1.4588780000	3.2858310000
1.4588810000	3.5075570000
1.4588830000	3.6184200000
1.4592700000	3.6180520000
1.4592720000	3.7289150000
1.4592740000	3.8397780000
1.4596610000	3.8394100000
1.4596640000	4.0611360000
1.4600520000	4.0607680000
1.4600550000	4.2824940000
1.4604430000	4.2821260000
1.4604460000	4.5038520000
1.4604480000	4.6147150000
1.4608350000	4.6143470000
1.4608390000	4.8360740000
1.4608400000	4.9469370000
1.4612280000	4.9465690000
1.4612290000	5.0574320000
1.4612310000	5.1682950000
1.4616190000	5.1679270000
1.4616220000	5.3896530000
1.4620090000	5.3892850000
1.4620130000	5.6110110000
1.4620150000	5.7218740000
1.4624020000	5.7215060000
1.4624070000	6.0540950000
1.4624090000	6.1649580000
1.4627960000	6.1645900000
1.4628010000	6.4971800000
1.4628030000	6.6080430000
1.4631900000	6.6076750000
1.4631970000	7.0511270000
1.4631990000	7.1619900000
1.4635860000	7.1616220000
1.4635930000	7.6050750000
1.4635950000	7.7159380000
1.4639820000	7.7155700000
1.4639870000	8.0481590000
1.4639890000	8.1590220000
1.4643770000	8.1586540000
1.4643800000	8.3803800000
1.4643820000	8.4912430000
1.4647690000	8.4908750000
1.4647740000	8.8234640000
1.4651620000	8.8230960000
1.4651720000	9.4882750000
1.4651740000	9.5991380000
1.4655610000	9.5987700000
1.4655640000	9.8204960000
1.4655660000	9.9313590000
1.4659540000	9.9309910000
1.4659600000	10.3744400000
1.4659640000	10.5961700000
1.4663510000	10.5958000000
1.4663620000	11.2609800000
1.4663630000	11.3718400000
1.4663650000	11.4827100000
1.4667520000	11.4823400000
1.4667590000	11.9257900000
1.4667630000	12.1475200000
1.4667640000	12.2583800000
1.4671520000	12.2580100000
1.4671550000	12.4797400000
1.4671570000	12.5906000000
1.4675440000	12.5902300000
1.4675480000	12.8119600000
1.4675490000	12.9228200000
1.4679370000	12.9224500000
1.4679450000	13.4767700000
1.4679470000	13.5876300000
1.4683350000	13.5872700000
1.4683430000	14.1415800000
1.4683450000	14.2524400000
1.4687320000	14.2520800000
1.4687420000	14.9172500000
1.4687440000	15.0281200000
1.4687460000	15.1389800000
1.4691330000	15.1386100000
1.4691420000	15.6929300000
1.4691440000	15.8037900000
1.4691450000	15.9146500000
1.4695330000	15.9142900000
1.4695400000	16.3577400000
1.4695430000	16.5794600000
1.4699300000	16.5791000000
1.4699390000	17.1334100000
1.4699420000	17.3551400000
1.4703300000	17.3547700000
1.4703350000	17.6873600000
1.4703370000	17.7982200000
1.4707240000	17.7978500000
1.4707290000	18.1304400000
1.4707310000	18.2413100000
1.4711180000	18.2409400000
1.4711270000	18.7952500000
1.4711290000	18.9061200000
1.4715160000	18.9057500000
1.4715280000	19.6817900000
1.4715300000	19.7926500000
1.4719170000	19.7922900000
1.4719240000	20.2357400000
1.4719260000	20.3466000000
1.4723130000	20.3462300000
1.4723200000	20.7896900000
1.4723230000	21.0114100000
1.4723250000	21.1222800000
1.4727120000	21.1219100000
1.4727210000	21.6762200000
1.4727240000	21.8979500000
1.4731120000	21.8975800000
1.4731200000	22.4519000000
1.4731220000	22.5627600000
1.4735100000	22.5623900000
1.4735160000	23.0058400000
1.4735180000	23.1167100000
1.4735200000	23.2275700000
1.4739070000	23.2272000000
1.4739120000	23.5597900000
1.4739140000	23.6706500000
1.4739160000	23.7815200000
1.4743030000	23.7811500000
1.4743100000	24.2246000000
1.4746970000	24.2242300000
1.4747080000	24.8894100000
1.4747090000	25.0002800000
1.4750970000	24.9999100000
1.4751050000	25.5542200000
1.4754930000	25.5538600000
1.4755010000	26.1081700000
1.4755030000	26.2190300000
1.4758900000	26.2186700000
1.4759010000	26.8838400000
1.4759030000	26.9947100000
1.4759040000	27.1055700000
1.4762920000	27.1052000000
1.4762980000	27.5486600000
1.4766860000	27.5482900000
1.4766910000	27.8808800000
1.4766930000	27.9917400000
1.4766940000	28.1026000000
1.4770820000	28.1022300000
1.4770890000	28.5456900000
1.4770900000	28.6565500000
1.4774780000	28.6561800000
1.4774900000	29.4322200000
1.4774920000	29.5430900000
1.4778790000	29.5427200000
1.4778880000	30.0970300000
1.4778890000	30.2079000000
1.4778910000	30.3187600000
1.4782780000	30.3183900000
1.4782850000	30.7618400000
1.4786730000	30.7614800000
1.4786850000	31.5375200000
1.4786900000	31.8701100000
1.4790770000	31.8697400000
1.4790860000	32.4240600000
1.4794730000	32.4236900000
1.4794800000	32.8671400000
1.4794820000	32.9780000000
1.4798690000	32.9776300000
1.4798760000	33.4210900000
1.4798780000	33.5319500000
1.4802650000	33.5315800000
1.4802750000	34.1967600000
1.4806630000	34.1963900000
1.4806750000	34.9724300000
1.4806780000	35.1941600000
1.4810660000	35.1937900000
1.4810780000	35.9698300000
1.4810790000	36.0807000000
1.4814670000	36.0803300000
1.4814800000	36.9672300000
1.4814820000	37.0781000000
1.4818690000	37.0777300000
1.4818850000	38.0755000000
1.4818870000	38.1863600000
1.4818880000	38.2972200000
1.4822760000	38.2968600000
1.4822900000	39.1837600000
1.4826770000	39.1833900000
1.4826870000	39.8485700000
1.4826890000	39.9594300000
1.4830760000	39.9590700000
1.4830800000	40.1807900000
1.4830810000	40.2916600000
1.4834690000	40.2912900000
1.4834740000	40.6238800000
1.4838610000	40.6235100000
1.4838790000	41.7321400000
1.4838840000	42.0647300000
1.4842710000	42.0643600000
1.4842880000	43.1729900000
1.4846760000	43.1726200000
1.4846930000	44.2812500000
1.4846950000	44.3921200000
1.4846960000	44.5029800000
1.4850840000	44.5026100000
1.4851030000	45.7221100000
1.4851040000	45.8329700000
1.4851060000	45.9438300000
1.4854930000	45.9434700000
1.4855050000	46.7195100000
1.4855090000	46.9412300000
1.4858960000	46.9408700000
1.4859060000	47.6060400000
1.4859080000	47.7169100000
1.4862960000	47.7165400000
1.4863080000	48.4925800000
1.4866950000	48.4922100000
1.4867070000	49.2682500000
1.4867090000	49.3791200000
1.4870960000	49.3787500000
1.4871130000	50.4873800000
1.4871150000	50.5982400000
1.4875020000	50.5978800000
1.4875230000	51.9282300000
1.4875250000	52.0391000000
1.4875260000	52.1499600000
1.4879140000	52.1495900000
1.4879360000	53.5908100000
1.4879380000	53.7016700000
1.4879400000	53.8125400000
1.4883270000	53.8121700000
1.4883440000	54.9208000000
1.4883460000	55.0316600000
1.4887330000	55.0313000000
1.4887450000	55.8073400000
1.4887490000	56.0290600000
1.4891360000	56.0287000000
1.4891500000	56.9156000000
1.4891510000	57.0264600000
1.4895390000	57.0261000000
1.4895630000	58.5781800000
1.4899500000	58.5778100000
1.4899640000	59.4647200000
1.4899660000	59.5755800000
1.4903530000	59.5752100000
1.4903740000	60.9055700000
1.4903770000	61.1272900000
1.4907650000	61.1269300000
1.4907850000	62.4572800000
1.4907870000	62.5681500000
1.4911740000	62.5677800000
1.4911910000	63.6764100000
1.4911930000	63.7872700000
1.4915810000	63.7869000000
1.4915940000	64.6738100000
1.4919820000	64.6734400000
1.4919970000	65.6712100000
1.4919990000	65.7820700000
1.4923860000	65.7817000000
1.4924030000	66.8903400000
1.4924050000	67.0012000000
1.4927920000	67.0008300000
1.4928110000	68.2203200000
1.4931990000	68.2199600000
1.4932160000	69.3285900000
1.4936030000	69.3282200000
1.4936170000	70.2151200000
1.4936190000	70.3259900000
1.4936200000	70.4368500000
1.4940080000	70.4364800000
1.4940270000	71.6559800000
1.4944140000	71.6556100000
1.4944310000	72.7642400000
1.4948190000	72.7638700000
1.4948320000	73.6507800000
1.4948340000	73.7616400000
1.4952220000	73.7612700000
1.4952320000	74.4264500000
1.4952340000	74.5373100000
1.4956210000	74.5369500000
1.4956300000	75.0912600000
1.4956310000	75.2021200000
1.4960190000	75.2017600000
1.4960310000	75.9778000000
1.4960320000	76.0886600000
1.4964200000	76.0882900000
1.4964330000	76.9752000000
1.4964350000	77.0860600000
1.4968230000	77.0856900000
1.4968360000	77.9726000000
1.4968380000	78.0834600000
1.4972250000	78.0830900000
1.4972430000	79.1917200000
1.4972440000	79.3025900000
1.4976320000	79.3022200000
1.4976420000	79.9674000000
1.4976440000	80.0782600000
1.4980310000	80.0778900000
1.4980360000	80.4104800000
1.4980400000	80.6322100000
1.4984270000	80.6318400000
1.4984320000	80.9644300000
1.4984340000	81.0752900000
1.4988210000	81.0749200000
1.4988230000	81.1857900000
1.4992100000	81.1854200000
1.4992170000	81.6288700000
1.4992190000	81.7397300000
1.4996060000	81.7393700000
1.4996150000	82.2936800000
1.5000020000	82.2933100000
1.5000180000	83.2910800000
1.5004050000	83.2907100000
1.5004170000	84.0667600000
1.5004190000	84.1776200000
1.5008060000	84.1772500000
1.5008130000	84.6207000000
1.5012010000	84.6203400000
1.5012060000	84.9529200000
1.5012070000	85.0637900000
1.5015950000	85.0634200000
1.5015980000	85.2851500000
1.5019860000	85.2847800000
1.5019870000	85.3956400000
1.5019890000	85.5065000000
1.5023760000	85.5061400000
1.5023800000	85.7278600000
1.5023820000	85.8387300000
1.5027690000	85.8383600000
1.5027740000	86.1709500000
1.5031610000	86.1705800000
1.5031670000	86.5031700000
1.5035540000	86.5028000000
1.5035590000	86.8353900000
1.5035610000	86.9462500000
1.5039480000	86.9458800000
1.5039500000	87.0567500000
1.5039520000	87.1676100000
1.5043390000	87.1672400000
1.5043410000	87.2781100000
1.5047280000	87.2777400000
1.5047300000	87.3886000000
1.5047320000	87.4994600000
1.5051190000	87.4991000000
1.5051210000	87.6099600000
1.5055080000	87.6095900000
1.5058950000	87.6092200000
1.5058970000	87.7200900000
1.5062850000	87.7197200000
1.5062860000	87.8305800000
1.5066740000	87.8302100000
1.5066750000	87.9410800000
1.5066770000	88.0519400000
1.5070640000	88.0515700000
1.5070660000	88.1624300000
1.5074540000	88.1620700000
1.5074550000	88.2729300000
1.5078430000	88.2725600000
1.5082300000	88.2721900000
1.5086170000	88.2718200000
1.5086190000	88.3826900000
1.5090060000	88.3823200000
1.5090080000	88.4931800000
1.5093960000	88.4928100000
1.5093970000	88.6036800000
1.5097850000	88.6033100000
1.5097860000	88.7141700000
1.5101740000	88.7138000000
1.5101750000	88.8246700000
1.5105630000	88.8243000000
1.5109500000	88.8239300000
1.5113380000	88.8235600000
1.5117250000	88.8231900000
1.5117270000	88.9340600000
1.5121140000	88.9336900000
1.5121160000	89.0445500000
1.5125030000	89.0441800000
1.5128910000	89.0438200000
1.5128920000	89.1546800000
1.5132800000	89.1543100000
1.5136670000	89.1539400000
1.5140530000	89.0427100000
1.5144400000	89.0423400000
1.5148270000	89.0419800000
1.5152150000	89.0416100000
1.5156020000	89.0412400000
1.5156040000	89.1521000000
1.5156060000	89.2629700000
1.5159930000	89.2626000000
1.5159950000	89.3734600000
1.5163820000	89.3730900000
1.5163840000	89.4839600000
1.5167710000	89.4835900000
1.5171570000	89.3723600000
1.5175440000	89.3719900000
1.5179300000	89.2607600000
1.5183170000	89.2603900000
1.5183190000	89.3712500000
1.5187060000	89.3708800000
1.5187080000	89.4817500000
1.5190950000	89.4813800000
1.5190970000	89.5922400000
1.5194850000	89.5918700000
1.5198720000	89.5915100000
1.5198740000	89.7023700000
1.5198750000	89.8132300000
1.5202630000	89.8128600000
1.5206470000	89.5907700000
1.5210340000	89.5904000000
1.5214200000	89.4791700000
1.5218050000	89.3679400000
1.5221910000	89.2567100000
1.5225770000	89.1454800000
1.5229620000	89.0342500000
1.5229640000	89.1451100000
1.5233460000	88.8121500000
1.5237320000	88.7009200000
1.5241180000	88.5896900000
1.5245050000	88.5893200000
1.5248890000	88.3672300000
1.5252760000	88.3668600000
1.5256590000	88.0339000000
1.5260460000	88.0335300000
1.5264320000	87.9223000000
1.5264330000	88.0331600000
1.5268150000	87.7002100000
1.5272030000	87.6998400000
1.5275890000	87.5886100000
1.5279720000	87.3665100000
1.5283600000	87.3661500000
1.5283620000	87.4770100000
1.5287420000	87.0331900000
1.5291260000	86.8110900000
1.5295120000	86.6998600000
1.5295130000	86.8107300000
1.5295150000	86.9215900000
1.5298940000	86.3669000000
1.5302800000	86.2556700000
1.5306630000	86.0335800000
1.5310470000	85.8114800000
1.5310490000	85.9223500000
1.5310510000	86.0332100000
1.5314300000	85.4785300000
1.5318150000	85.3673000000
1.5321990000	85.1452000000
1.5325850000	85.0339700000
1.5325870000	85.1448300000
1.5329650000	84.5901500000
1.5333510000	84.4789200000
1.5337370000	84.3676900000
1.5337380000	84.4785500000
1.5341190000	84.0347300000
1.5345050000	83.9235000000
1.5348870000	83.5905400000
1.5352730000	83.4793100000
1.5352740000	83.5901700000
1.5356550000	83.1463500000
1.5360420000	83.1459800000
1.5364260000	82.9238900000
1.5364280000	83.0347500000
1.5368080000	82.5909300000
1.5371940000	82.4797000000
1.5375780000	82.2576100000
1.5379600000	81.9246500000
1.5383460000	81.8134200000
1.5383470000	81.9242800000
1.5383490000	82.0351400000
1.5387280000	81.4804600000
1.5387300000	81.5913200000
1.5387310000	81.7021900000
1.5391120000	81.2583700000
1.5394980000	81.1471400000
1.5398820000	80.9250400000
1.5402690000	80.9246700000
1.5406550000	80.8134400000
1.5406560000	80.9243100000
1.5410370000	80.4804800000
1.5414240000	80.4801200000
1.5414260000	80.5909800000
1.5418080000	80.2580200000
1.5421950000	80.2576500000
1.5425810000	80.1464200000
1.5429690000	80.1460500000
1.5433540000	80.0348200000
1.5437400000	79.9235900000
1.5441270000	79.9232200000
1.5445130000	79.8119900000
1.5449000000	79.8116200000
1.5449020000	79.9224900000
1.5452840000	79.5895300000
1.5456720000	79.5891600000
1.5460590000	79.5887900000
1.5460610000	79.6996600000
1.5464480000	79.6992900000
1.5468350000	79.6989200000
1.5472230000	79.6985500000
1.5472240000	79.8094200000
1.5476120000	79.8090500000
1.5479980000	79.6978200000
1.5480010000	79.9195400000
1.5483880000	79.9191700000
1.5483900000	80.0300400000
1.5487770000	80.0296700000
1.5491650000	80.0293000000
1.5495520000	80.0289300000
1.5495540000	80.1398000000
1.5499410000	80.1394300000
1.5503290000	80.1390600000
1.5507160000	80.1386900000
1.5511030000	80.1383200000
1.5511050000	80.2491900000
1.5514930000	80.2488200000
1.5518800000	80.2484500000
1.5518820000	80.3593100000
1.5522690000	80.3589500000
1.5522710000	80.4698100000
1.5526580000	80.4694400000
1.5526600000	80.5803000000
1.5530470000	80.5799400000
1.5530490000	80.6908000000
1.5534360000	80.6904300000
1.5534380000	80.8012900000
1.5538250000	80.8009300000
1.5538290000	81.0226500000
1.5542160000	81.0222800000
1.5542180000	81.1331500000
1.5542200000	81.2440100000
1.5546070000	81.2436400000
1.5546090000	81.3545100000
1.5549960000	81.3541400000
1.5549980000	81.4650000000
1.5553850000	81.4646300000
1.5553890000	81.6863600000
1.5557760000	81.6859900000
1.5557780000	81.7968500000
1.5561650000	81.7964900000
1.5561670000	81.9073500000
1.5561690000	82.0182100000
1.5565560000	82.0178400000
1.5565580000	82.1287100000
1.5569450000	82.1283400000
1.5569470000	82.2392000000
1.5573340000	82.2388300000
1.5573360000	82.3497000000
1.5577230000	82.3493300000
1.5577250000	82.4601900000
1.5581120000	82.4598200000
1.5581140000	82.5706900000
1.5581160000	82.6815500000
1.5585030000	82.6811800000
1.5585070000	82.9029100000
1.5588940000	82.9025400000
1.5588970000	83.1242700000
1.5588990000	83.2351300000
1.5592860000	83.2347600000
1.5592880000	83.3456200000
1.5596760000	83.3452600000
1.5596770000	83.4561200000
1.5600650000	83.4557500000
1.5600680000	83.6774800000
1.5604550000	83.6771100000
1.5604570000	83.7879700000
1.5608450000	83.7876000000
